Arquivo: c:\arq\medidas\BBA_0603_073413\BBA_AMP08B_V.dat
Data: 0603	 Hora:  0830
Comentário: 
NomeParametro	 ValorParametro
Nmedias	5
PausaCorretora	3000
PausaShunt	2000
PausaLeitura	500
NumCiclos	3
 NPassosCor	9
DeltaShunt	3.00
TetaIni	-0.20
TetaFim	0.20
I[mA]	  91.2
ACV03B	DeltaPos^2	AMP08B	AMP01B_0	AMP02A_0	AMP02B_0	AMP03A_0	AMP03B_0	AMP04A_0	AMP04B_0	AMP05A_0	AMP05B_0	AMP06A_0	AMP06B_0	AMP07A_0	AMP07B_0	AMP08A_0	AMP08B_0	AMP09A_0	AMP09B_0	AMP10A_0	AMP10B_0	AMP11A_0	AMU11A_0	AMU11B_0	AMP11B_0	AMP12A_0	AMP12B_0	AMP01A_0	AMP01B_1	AMP02A_1	AMP02B_1	AMP03A_1	AMP03B_1	AMP04A_1	AMP04B_1	AMP05A_1	AMP05B_1	AMP06A_1	AMP06B_1	AMP07A_1	AMP07B_1	AMP08A_1	AMP08B_1	AMP09A_1	AMP09B_1	AMP10A_1	AMP10B_1	AMP11A_1	AMU11A_1	AMU11B_1	AMP11B_1	AMP12A_1	AMP12B_1	AMP01A_1	
-0.2000	 1.11123775721949E-0003	1.2252	1.1855	1.2646	1.4239	1.3897	0.5834	-0.8439	-0.9485	0.6299	2.2636	1.6248	-1.5823	-1.5865	1.0054	1.8933	1.2252	1.5052	-1.8505	-0.6389	0.4771	-0.0492	1.5033	2.1794	-2.7519	0.9588	-0.5381	-1.6785	1.2060	1.2919	1.4602	1.4334	0.5389	-0.8799	-0.9521	0.6470	2.2826	1.6232	-1.6169	-1.6435	1.0477	1.9287	1.2582	1.5562	-1.8941	-0.6741	0.4551	-0.0417	1.4967	2.2138	-2.8484	0.9760	-0.5574	-1.7190	
-0.1500	 6.33832023718624E-0004	0.9181	0.8212	0.9495	1.1847	1.1847	0.9461	-0.5251	-0.7851	0.6982	1.9379	1.4890	-1.4019	-1.2037	0.8546	1.6874	0.9181	1.1380	-1.3911	-0.3409	0.5146	-0.0417	1.3759	2.0168	-1.9989	0.9632	-0.2536	-1.2379	0.8363	0.9701	1.2124	1.2175	0.9132	-0.5520	-0.7871	0.7112	1.9523	1.4878	-1.4279	-1.2465	0.8863	1.7145	0.9428	1.1770	-1.4241	-0.3678	0.4984	-0.0403	1.3707	2.0435	-2.0723	0.9767	-0.2680	-1.2687	
-0.1000	 2.93712077533238E-0004	0.6061	0.4528	0.6302	0.9410	0.9757	1.3132	-0.2022	-0.6195	0.7666	1.6070	1.3517	-1.2182	-0.8141	0.7008	1.4780	0.6061	0.7645	-0.9239	-0.0388	0.5535	-0.0730	1.2477	1.8517	-1.2269	0.9670	0.0342	-0.7903	0.4629	0.6441	0.9601	0.9983	1.2911	-0.2206	-0.6205	0.7754	1.6167	1.3512	-1.2358	-0.8432	0.7220	1.4964	0.6232	0.7912	-0.9465	-0.0569	0.5421	-0.0444	1.2443	1.8699	-1.2774	0.9761	0.0244	-0.8111	
-0.0500	 7.53378531149212E-0005	0.2913	0.0815	0.3079	0.6948	0.7639	1.6823	0.1237	-0.4529	0.8352	1.2725	1.2138	-1.0329	-0.4202	0.5449	1.2669	0.2913	0.3885	-0.4505	0.2660	0.5933	-0.0508	1.1186	1.6838	-0.4443	0.9703	0.3242	-0.3371	0.0865	0.3150	0.7048	0.7756	1.6713	0.1142	-0.4535	0.8395	1.2774	1.2136	-1.0416	-0.4346	0.5553	1.2758	0.3000	0.4019	-0.4619	0.2571	0.5872	-0.0562	1.1167	1.6934	-0.4699	0.9760	0.3195	-0.3478	
0.0000	 2.45223218005639E-0007	-0.0269	-0.2922	-0.0175	0.4456	0.5478	2.0530	0.4524	-0.2845	0.9044	0.9330	1.0738	-0.8454	-0.0221	0.3871	1.0532	-0.0269	0.0078	0.0275	0.5733	0.6339	-0.0140	0.9891	1.5133	0.3464	0.9731	0.6160	0.1182	-0.2927	-0.0175	0.4460	0.5485	2.0534	0.4525	-0.2845	0.9040	0.9338	1.0742	-0.8450	-0.0215	0.3871	1.0523	-0.0270	0.0084	0.0275	0.5737	0.6336	-0.0303	0.9889	1.5143	0.3468	0.9739	0.6164	0.1184	
0.0500	 7.22464785024963E-0005	-0.3483	-0.6703	-0.3453	0.1944	0.3295	2.4242	0.7842	-0.1138	0.9761	0.5902	0.9315	-0.6565	0.3785	0.2292	0.8369	-0.3483	-0.3760	0.5096	0.8845	0.6764	-0.0268	0.8595	1.3400	1.1415	0.9745	0.9089	0.5780	-0.6763	-0.3523	0.1855	0.3190	2.4356	0.7934	-0.1132	0.9712	0.5861	0.9324	-0.6471	0.3935	0.2185	0.8276	-0.3570	-0.3886	0.5208	0.8934	0.6817	-0.0532	0.8610	1.3324	1.1664	0.9708	0.9147	0.5884	
0.1000	 2.95611439883492E-0004	-0.6714	-1.0501	-0.6746	-0.0592	0.1104	2.7945	1.1176	0.0597	1.0504	0.2429	0.7868	-0.4675	0.7805	0.0715	0.6210	-0.6714	-0.7637	0.9944	1.1971	0.7201	-0.0454	0.7297	1.1648	1.9356	0.9756	1.2035	1.0403	-1.0615	-0.6888	-0.0777	0.0886	2.8172	1.1357	0.0615	1.0414	0.2336	0.7879	-0.4492	0.8101	0.0498	0.6018	-0.6892	-0.7893	1.0175	1.2154	0.7308	-0.0363	0.7331	1.1482	1.9857	0.9677	1.2144	1.0618	
0.1500	 6.70067405200864E-0004	-0.9970	-1.4311	-1.0058	-0.3136	-0.1099	3.1643	1.4523	0.2362	1.1280	-0.1095	0.6395	-0.2783	1.1844	-0.0860	0.4037	-0.9970	-1.1533	1.4813	1.5115	0.7643	-0.0389	0.5998	0.9869	2.7244	0.9758	1.4990	1.5046	-1.4477	-1.0269	-0.3417	-0.1433	3.1978	1.4800	0.2390	1.1150	-0.1244	0.6406	-0.2510	1.2290	-0.1183	0.3757	-1.0231	-1.1925	1.5155	1.5403	0.7813	-0.0540	0.6051	0.9607	2.7985	0.9633	1.5144	1.5362	
0.2000	 1.20937043366181E-0003	-1.3276	-1.8184	-1.3416	-0.5720	-0.3332	3.5367	1.7926	0.4183	1.2110	-0.4713	0.4868	-0.0874	1.5921	-0.2431	0.1846	-1.3276	-1.5510	1.9753	1.8323	0.8106	-0.0477	0.4689	0.8040	3.5135	0.9742	1.7990	1.9751	-1.8406	-1.3701	-0.6100	-0.3787	3.5819	1.8301	0.4223	1.1938	-0.4918	0.4879	-0.0512	1.6513	-0.2863	0.1472	-1.3628	-1.6042	2.0205	1.8701	0.8337	-0.0562	0.4763	0.7683	3.6117	0.9571	1.8198	2.0180	
