Arquivo: c:\arq\medidas\BBA_2003_073142\BBA_AMP09A_V.dat
Data: 2003	 Hora:  0822
Comentário: 
NomeParametro	 ValorParametro
Nmedias	5
PausaCorretora	3000
PausaShunt	2000
PausaLeitura	500
NumCiclos	3
 NPassosCor	7
DeltaShunt	3.00
TetaIni	-0.20
TetaFim	0.20
I[mA]	  29.0
ACV07A	DeltaPos^2	AMP09A	AMP01B_0	AMP02A_0	AMP02B_0	AMP03A_0	AMP03B_0	AMP03C_0	AMP04A_0	AMP04B_0	AMP05A_0	AMP05B_0	AMP06A_0	AMP06B_0	AMP07A_0	AMP07B_0	AMP08A_0	AMP08B_0	AMP09A_0	AMP09B_0	AMP10A_0	AMP10B_0	AMU11A_0	AMU11B_0	AMP12A_0	AMP12B_0	AMP01A_0	AMP01B_1	AMP02A_1	AMP02B_1	AMP03A_1	AMP03B_1	AMP03C_1	AMP04A_1	AMP04B_1	AMP05A_1	AMP05B_1	AMP06A_1	AMP06B_1	AMP07A_1	AMP07B_1	AMP08A_1	AMP08B_1	AMP09A_1	AMP09B_1	AMP10A_1	AMP10B_1	AMU11A_1	AMU11B_1	AMP12A_1	AMP12B_1	AMP01A_1	
-0.2000	 7.96501478830864E-0003	1.4851	1.5549	1.4559	1.3425	1.1131	0.5622	-2.4642	-0.3119	0.6165	2.7904	0.2101	0.0200	-2.4551	-2.1712	1.6264	2.3141	1.3636	1.4851	-2.2047	-0.7477	0.7445	1.8961	1.9555	0.6696	-0.7687	-1.8665	1.5322	1.4771	1.4329	1.2509	0.4697	-2.6904	-0.4080	0.5651	2.7672	0.3118	0.0633	-2.5069	-2.2844	1.6681	2.3729	1.4568	1.6052	-2.2574	-0.8153	0.6523	1.8225	2.0637	0.7566	-0.7660	-1.9141	
-0.1333	 3.38307523167304E-0003	1.0287	0.8749	0.9350	1.0636	0.9716	1.0556	-1.5402	-0.0808	0.2714	2.1186	0.5098	0.4156	-1.9059	-1.4543	1.1753	1.8787	0.9151	1.0287	-1.4802	-0.3325	0.6605	1.5502	1.8427	0.8188	-0.2639	-1.1671	0.8605	0.9493	1.1227	1.0612	0.9959	-1.6888	-0.1429	0.2382	2.1035	0.5757	0.4437	-1.9396	-1.5282	1.2021	1.9171	0.9758	1.1069	-1.5155	-0.3767	0.6012	1.5026	1.9132	0.8749	-0.2626	-1.1984	
-0.0667	 5.89216093993939E-0004	0.5567	0.1702	0.3955	0.7729	0.8235	1.5654	-0.5724	0.1607	-0.0806	1.4223	0.8132	0.8207	-1.3360	-0.7087	0.7047	1.4251	0.4500	0.5567	-0.7260	0.0971	0.5754	1.1926	1.7246	0.9716	0.2575	-0.4390	0.1642	0.4011	0.7975	0.8609	1.5412	-0.6343	0.1348	-0.0949	1.4153	0.8409	0.8327	-1.3495	-0.7390	0.7152	1.4411	0.4753	0.5894	-0.7408	0.0784	0.5501	1.1725	1.7545	0.9954	0.2585	-0.4522	
0.0000	 1.22457949065754E-0004	0.0748	-0.5454	-0.1548	0.4751	0.6683	2.0827	0.4181	0.4084	-0.4360	0.7141	1.1154	1.2288	-0.7549	0.0521	0.2257	0.9625	-0.0249	0.0748	0.0450	0.5343	0.4912	0.8299	1.6012	1.1238	0.7864	0.3008	-0.5436	-0.1581	0.4635	0.6515	2.0949	0.4472	0.4202	-0.4305	0.7164	1.1029	1.2240	-0.7479	0.0672	0.2198	0.9545	-0.0365	0.0605	0.0524	0.5426	0.5014	0.8384	1.5893	1.1144	0.7871	0.3072	
0.0667	 2.18847260281582E-0003	-0.4132	-1.2637	-0.7070	0.1746	0.5101	2.5989	1.4119	0.6590	-0.7898	0.0043	1.4147	1.6340	-0.1718	0.8140	-0.2517	0.4985	-0.5036	-0.4132	0.8207	0.9766	0.4114	0.4686	1.4729	1.2728	1.3155	1.0455	-1.2541	-0.7196	0.1268	0.4384	2.6471	1.5320	0.7090	-0.7640	0.0160	1.3620	1.6118	-0.1438	0.8751	-0.2747	0.4665	-0.5527	-0.4754	0.8506	1.0122	0.4579	0.5062	1.4179	1.2293	1.3159	1.0722	
0.1333	 6.78018564950759E-0003	-0.9035	-1.9729	-1.2537	-0.1251	0.3517	3.1076	2.3896	0.9087	-1.1386	-0.6976	1.7095	2.0327	0.4043	1.5664	-0.7186	0.0408	-0.9810	-0.9035	1.5902	1.4175	0.3365	0.1139	1.3393	1.4154	1.8378	1.7823	-1.9553	-1.2752	-0.2100	0.2241	3.1904	2.5980	0.9975	-1.0912	-0.6758	1.6151	1.9930	0.4530	1.6723	-0.7581	-0.0150	-1.0677	-1.0137	1.6423	1.4803	0.4198	0.1811	1.2410	1.3380	1.8376	1.8290	
0.2000	 1.35501428284948E-0002	-1.3930	-2.6649	-1.7895	-0.4206	0.1947	3.6028	3.3360	1.1556	-1.4783	-1.3826	1.9956	2.4206	0.9670	2.2986	-1.1669	-0.4046	-1.4535	-1.3930	2.3451	1.8547	0.2697	-0.2290	1.2008	1.5493	2.3481	2.5035	-2.6385	-1.8189	-0.5408	0.0125	3.7183	3.6261	1.2818	-1.4091	-1.3495	1.8607	2.3632	1.0349	2.4464	-1.2211	-0.4832	-1.5761	-1.5499	2.4173	1.9435	0.3892	-0.1320	1.0591	1.4375	2.3468	2.5682	
