Arquivo: c:\arq\medidas\BBA_2003_073142\BBA_AMP05A_H.dat
Data: 2003	 Hora:  0756
Comentário: 
NomeParametro	 ValorParametro
Nmedias	5
PausaCorretora	3000
PausaShunt	2000
PausaLeitura	500
NumCiclos	3
 NPassosCor	7
DeltaShunt	3.00
TetaIni	-0.20
TetaFim	0.20
I[mA]	  87.6
ACH11B	DeltaPos^2	AMP05A	AMP01B_0	AMP02A_0	AMP02B_0	AMP03A_0	AMP03B_0	AMP03C_0	AMP04A_0	AMP04B_0	AMP05A_0	AMP05B_0	AMP06A_0	AMP06B_0	AMP07A_0	AMP07B_0	AMP08A_0	AMP08B_0	AMP09A_0	AMP09B_0	AMP10A_0	AMP10B_0	AMU11A_0	AMU11B_0	AMP12A_0	AMP12B_0	AMP01A_0	AMP01B_1	AMP02A_1	AMP02B_1	AMP03A_1	AMP03B_1	AMP03C_1	AMP04A_1	AMP04B_1	AMP05A_1	AMP05B_1	AMP06A_1	AMP06B_1	AMP07A_1	AMP07B_1	AMP08A_1	AMP08B_1	AMP09A_1	AMP09B_1	AMP10A_1	AMP10B_1	AMU11A_1	AMU11B_1	AMP12A_1	AMP12B_1	AMP01A_1	
-0.2000	 9.79828330818565E-0003	0.2229	-1.0365	-0.1922	-2.2503	1.6439	0.6294	-2.0249	-1.2777	-1.1479	0.2229	1.6431	-0.0143	-1.7146	0.5355	0.9525	-0.3604	-0.2605	-0.7883	-0.1087	0.5930	-0.4835	-1.5663	-1.1525	-0.6386	-0.5556	0.3894	-0.8534	-0.2166	-2.3175	1.6438	0.6818	-1.9810	-1.2247	-1.1491	0.0636	1.4630	0.0279	-1.6384	0.4908	0.8589	-0.3853	-0.2376	-0.6899	-0.0550	0.5179	-0.5277	-1.3846	-0.9773	-0.7218	-0.6397	0.5434	
-0.1333	 4.02903666710097E-0003	-0.4242	-1.0671	0.0608	-2.1514	1.0148	0.0862	-2.1721	-0.9535	-0.8532	-0.4242	0.9638	0.2046	-1.4061	0.2100	0.4728	-0.3704	-0.1019	-0.5825	-0.0837	0.3609	-0.5716	-0.9652	-0.6045	-0.6212	-0.7208	0.1690	-0.9498	0.0450	-2.1948	1.0151	0.1201	-2.1440	-0.9199	-0.8540	-0.5260	0.8481	0.2314	-1.3573	0.1815	0.4132	-0.3859	-0.0876	-0.5192	-0.0495	0.3125	-0.5999	-0.8485	-0.4923	-0.6748	-0.7749	0.2679	
-0.0667	 7.75244924955845E-0004	-1.0762	-1.1037	0.3164	-2.0498	0.3763	-0.4647	-2.3217	-0.6270	-0.5551	-1.0762	0.2770	0.4258	-1.0952	-0.1205	-0.0125	-0.3781	0.0584	-0.3788	-0.0626	0.1281	-0.6584	-0.3612	-0.0569	-0.6011	-0.8846	-0.0571	-1.0523	0.3095	-2.0689	0.3764	-0.4499	-2.3092	-0.6119	-0.5557	-1.1211	0.2260	0.4375	-1.0736	-0.1329	-0.0388	-0.3850	0.0647	-0.3512	-0.0477	0.1072	-0.6706	-0.3102	-0.0081	-0.6247	-0.9085	-0.0135	
0.0000	 6.02443700137486E-0005	-1.7295	-1.1445	0.5733	-1.9460	-0.2670	-1.0191	-2.4725	-0.2987	-0.2559	-1.7295	-0.4148	0.6477	-0.7822	-0.4545	-0.5016	-0.3844	0.2205	-0.1782	-0.0446	-0.1046	-0.7436	0.2422	0.4880	-0.5786	-1.0470	-0.2882	-1.1582	0.5746	-1.9413	-0.2662	-1.0225	-2.4751	-0.3030	-0.2564	-1.7172	-0.4005	0.6444	-0.7882	-0.4514	-0.4948	-0.3824	0.2186	-0.1870	-0.0496	-0.0979	-0.7402	0.2274	0.4732	-0.5726	-1.0403	-0.2985	
0.0667	 1.88205645602072E-0003	-2.3802	-1.1880	0.8303	-1.8412	-0.9109	-1.5738	-2.6244	0.0285	0.0428	-2.3802	-1.1058	0.8696	-0.4698	-0.7912	-0.9926	-0.3898	0.3825	0.0191	-0.0298	-0.3372	-0.8283	0.8435	1.0288	-0.5554	-1.2081	-0.5218	-1.2667	0.8396	-1.8127	-0.9084	-1.5943	-2.6420	0.0050	0.0419	-2.3109	-1.0258	0.8516	-0.5033	-0.7729	-0.9527	-0.3786	0.3730	-0.0268	-0.0553	-0.3029	-0.8084	0.7627	0.9503	-0.5199	-1.1712	-0.5867	
0.1333	 5.98348198960496E-0003	-3.0254	-1.2368	1.0869	-1.7352	-1.5536	-2.1290	-2.7777	0.3550	0.3411	-3.0254	-1.7940	1.0915	-0.1575	-1.1298	-1.4834	-0.3937	0.5459	0.2135	-0.0187	-0.5688	-0.9116	1.4381	1.5625	-0.5296	-1.3672	-0.7594	-1.3756	1.1015	-1.6858	-1.5471	-2.1632	-2.8090	0.3106	0.3372	-2.9002	-1.6487	1.0574	-0.2200	-1.0953	-1.4103	-0.3749	0.5264	0.1317	-0.0639	-0.5094	-0.8776	1.2953	1.4232	-0.4684	-1.3033	-0.8747	
0.2000	 1.28650287444250E-0002	-3.6633	-1.2849	1.3391	-1.6322	-2.1893	-2.6780	-2.9317	0.6773	0.6353	-3.6633	-2.4764	1.3122	0.1514	-1.4675	-1.9729	-0.3995	0.7061	0.4047	-0.0092	-0.8029	-0.9971	2.0307	2.0930	-0.5076	-1.5301	-0.9965	-1.4911	1.3647	-1.5561	-2.1834	-2.7307	-2.9778	0.6169	0.6348	-3.4847	-2.2683	1.2658	0.0643	-1.4195	-1.8695	-0.3684	0.6823	0.2838	-0.0771	-0.7126	-0.9433	1.8194	1.8882	-0.4130	-1.4313	-1.1670	
