Arquivo: c:\arq\medidas\BBA_2003_073142\BBA_AMP06A_V.dat
Data: 2003	 Hora:  0804
Comentário: 
NomeParametro	 ValorParametro
Nmedias	5
PausaCorretora	3000
PausaShunt	2000
PausaLeitura	500
NumCiclos	3
 NPassosCor	7
DeltaShunt	3.00
TetaIni	-0.20
TetaFim	0.20
I[mA]	  50.9
ACV07A	DeltaPos^2	AMP06A	AMP01B_0	AMP02A_0	AMP02B_0	AMP03A_0	AMP03B_0	AMP03C_0	AMP04A_0	AMP04B_0	AMP05A_0	AMP05B_0	AMP06A_0	AMP06B_0	AMP07A_0	AMP07B_0	AMP08A_0	AMP08B_0	AMP09A_0	AMP09B_0	AMP10A_0	AMP10B_0	AMU11A_0	AMU11B_0	AMP12A_0	AMP12B_0	AMP01A_0	AMP01B_1	AMP02A_1	AMP02B_1	AMP03A_1	AMP03B_1	AMP03C_1	AMP04A_1	AMP04B_1	AMP05A_1	AMP05B_1	AMP06A_1	AMP06B_1	AMP07A_1	AMP07B_1	AMP08A_1	AMP08B_1	AMP09A_1	AMP09B_1	AMP10A_1	AMP10B_1	AMU11A_1	AMU11B_1	AMP12A_1	AMP12B_1	AMP01A_1	
-0.2000	 1.07934868164181E-0003	0.0724	1.4441	1.3602	1.2632	1.0468	0.6830	-2.2294	-0.2401	0.5790	2.6724	0.2386	0.0724	-2.3398	-2.0220	1.4579	2.1862	1.2737	1.4031	-2.0763	-0.6759	0.7388	1.8371	1.9265	0.6827	-0.6888	-1.7494	1.4851	1.3780	1.2452	1.0046	0.6909	-2.1943	-0.2178	0.6139	2.7127	0.1885	0.0384	-2.3754	-2.0632	1.5153	2.2200	1.2746	1.3840	-2.0933	-0.6729	0.7750	1.8799	1.8944	0.6450	-0.7141	-1.7663	
-0.1333	 4.79754110305895E-0004	0.4466	0.8042	0.8711	1.0051	0.9210	1.1407	-1.3720	-0.0275	0.2522	2.0409	0.5251	0.4466	-1.8258	-1.3541	1.0484	1.7853	0.8577	0.9813	-1.3990	-0.2887	0.6552	1.5086	1.8261	0.8275	-0.2143	-1.0956	0.8312	0.8832	0.9933	0.8938	1.1461	-1.3488	-0.0128	0.2756	2.0681	0.4917	0.4242	-1.8495	-1.3818	1.0863	1.8087	0.8586	0.9684	-1.4107	-0.2868	0.6796	1.5374	1.8051	0.8021	-0.2316	-1.1069	
-0.0667	 1.11370471048334E-0004	0.8289	0.1449	0.3670	0.7375	0.7898	1.6116	-0.4797	0.1929	-0.0808	1.3887	0.8143	0.8289	-1.2943	-0.6626	0.6232	1.3709	0.4290	0.5472	-0.6975	0.1098	0.5705	1.1708	1.7223	0.9747	0.2735	-0.4183	0.1580	0.3732	0.7322	0.7770	1.6137	-0.4694	0.1997	-0.0695	1.4019	0.7983	0.8180	-1.3061	-0.6762	0.6417	1.3823	0.4295	0.5417	-0.7032	0.1106	0.5824	1.1851	1.7121	0.9626	0.2653	-0.4237	
0.0000	 1.65078325929911E-0006	1.2122	-0.5208	-0.1439	0.4651	0.6533	2.0869	0.4266	0.4176	-0.4148	0.7297	1.1011	1.2122	-0.7567	0.0379	0.1936	0.9502	-0.0064	0.1073	0.0149	0.5130	0.4868	0.8299	1.6145	1.1217	0.7658	0.2657	-0.5225	-0.1442	0.4663	0.6556	2.0857	0.4242	0.4162	-0.4160	0.7283	1.1034	1.2136	-0.7558	0.0389	0.1919	0.9492	-0.0061	0.1085	0.0148	0.5125	0.4859	0.8291	1.6156	1.1226	0.7666	0.2662	
0.0667	 1.67138594591607E-0004	1.6005	-1.2021	-0.6664	0.1855	0.5120	2.5701	1.3525	0.6492	-0.7542	0.0559	1.3913	1.6005	-0.2068	0.7530	-0.2432	0.5205	-0.4531	-0.3469	0.7447	0.9279	0.4052	0.4833	1.5002	1.2684	1.2670	0.9667	-1.2183	-0.6728	0.1935	0.5293	2.5659	1.3368	0.6400	-0.7677	0.0398	1.4116	1.6138	-0.1933	0.7686	-0.2654	0.5077	-0.4530	-0.3387	0.7503	0.9263	0.3913	0.4674	1.5130	1.2827	1.2767	0.9730	
0.1333	 5.84605195848577E-0004	1.9862	-1.8818	-1.1889	-0.0964	0.3692	3.0507	2.2740	0.8826	-1.0920	-0.6172	1.6797	1.9862	0.3422	1.4661	-0.6752	0.0921	-0.9031	-0.8071	1.4773	1.3461	0.3272	0.1394	1.3807	1.4116	1.7678	1.6685	-1.9115	-1.2010	-0.0815	0.4014	3.0428	2.2445	0.8641	-1.1172	-0.6470	1.7173	2.0110	0.3674	1.4954	-0.7165	0.0677	-0.9025	-0.7919	1.4881	1.3428	0.3010	0.1089	1.4046	1.4383	1.7857	1.6797	
0.2000	 1.20860614478057E-0003	2.3649	-2.5496	-1.7044	-0.3758	0.2271	3.5224	3.1720	1.1136	-1.4236	-1.2787	1.9624	2.3649	0.8823	2.1659	-1.0932	-0.3278	-1.3510	-1.2691	2.2002	1.7627	0.2554	-0.1962	1.2561	1.5478	2.2605	2.3593	-2.5914	-1.7218	-0.3538	0.2741	3.5105	3.1292	1.0877	-1.4605	-1.3213	2.0167	2.4004	0.9184	2.2073	-1.1522	-0.3626	-1.3503	-1.2467	2.2152	1.7584	0.2175	-0.2402	1.2908	1.5864	2.2859	2.3753	
