Arquivo: c:\arq\medidas\BBA_2003_071015\BBA_AMP03B_V.dat
Data: 2003	 Hora:  0724
Comentário: 
NomeParametro	 ValorParametro
Nmedias	5
PausaCorretora	3000
PausaShunt	2000
PausaLeitura	500
NumCiclos	3
 NPassosCor	7
DeltaShunt	3.00
TetaIni	-0.20
TetaFim	0.20
I[mA]	 157.6
ACV09B	DeltaPos^2	AMP03B	AMP01B_0	AMP02A_0	AMP02B_0	AMP03A_0	AMP03B_0	AMP03C_0	AMP04A_0	AMP04B_0	AMP05A_0	AMP05B_0	AMP06A_0	AMP06B_0	AMP07A_0	AMP07B_0	AMP08A_0	AMP08B_0	AMP09A_0	AMP09B_0	AMP10A_0	AMP10B_0	AMU11A_0	AMU11B_0	AMP12A_0	AMP12B_0	AMP01A_0	AMP01B_1	AMP02A_1	AMP02B_1	AMP03A_1	AMP03B_1	AMP03C_1	AMP04A_1	AMP04B_1	AMP05A_1	AMP05B_1	AMP06A_1	AMP06B_1	AMP07A_1	AMP07B_1	AMP08A_1	AMP08B_1	AMP09A_1	AMP09B_1	AMP10A_1	AMP10B_1	AMU11A_1	AMU11B_1	AMP12A_1	AMP12B_1	AMP01A_1	
-0.2000	 6.45683913803994E-0001	0.7895	0.3233	0.7776	1.4682	1.6998	0.7895	-2.5373	-0.4782	-0.2103	1.5716	1.2285	0.8563	-1.9878	-1.7130	1.6933	2.1047	0.8049	0.7137	-1.5203	-0.5338	-0.1165	0.7189	2.6015	1.5736	0.0777	-1.1425	-0.7463	-0.1468	0.7609	1.1659	1.7124	-0.5707	0.1668	-0.4085	0.9445	1.1542	1.1104	-1.1264	-0.5036	0.5059	1.2657	0.4522	0.7112	-0.6383	-0.0327	-0.0359	0.4470	2.3180	1.6049	0.8608	0.0716	
-0.1333	 1.05714496108866E-0001	1.4019	-0.3722	0.1331	0.9748	1.2774	1.4019	-1.1301	0.0259	-0.2097	1.3073	1.0617	0.9159	-1.4741	-0.9565	1.0042	1.5970	0.5607	0.6480	-0.9134	-0.1521	0.0545	0.6940	2.2245	1.4974	0.6005	-0.2902	-0.6132	-0.1209	0.6799	1.0164	1.7423	-0.3902	0.2232	-0.3217	0.9829	1.0587	1.0660	-1.0829	-0.4094	0.5242	1.2746	0.3329	0.4906	-0.4423	0.1586	0.2503	0.7185	1.9305	1.3271	0.7494	0.1150	
-0.0667	 3.28763575620047E-0002	1.7283	-0.3983	0.0135	0.6977	0.9192	1.7283	-0.4006	0.2557	-0.2277	1.1361	0.9403	0.9621	-1.1528	-0.4672	0.6777	1.3035	0.2520	0.3127	-0.4138	0.2179	0.3355	0.8097	1.8513	1.2369	0.6384	-0.0286	-0.4941	-0.1055	0.5429	0.7602	1.9140	0.0677	0.3650	-0.2898	0.9488	0.9608	1.0536	-0.9487	-0.1774	0.4250	1.1240	0.1117	0.2132	-0.1674	0.4023	0.4483	0.8292	1.6930	1.1409	0.7175	0.1617	
0.0000	 1.13294488329026E-0003	2.0448	-0.4141	-0.0982	0.4193	0.5705	2.0448	0.4116	0.4622	-0.2529	0.9345	0.8674	1.0327	-0.8491	-0.0113	0.3648	1.0410	-0.0377	-0.0065	0.0549	0.5670	0.6047	0.9399	1.4924	0.9873	0.6719	0.2200	-0.3631	-0.0775	0.3998	0.5082	2.0793	0.5036	0.4970	-0.2505	0.9270	0.8545	1.0332	-0.8249	0.0304	0.3420	1.0065	-0.0773	-0.0399	0.0760	0.6030	0.6206	0.9453	1.4810	0.9733	0.6642	0.1918	
0.0667	 2.82247352339536E-0002	2.4190	-0.4793	-0.2345	0.1598	0.2012	2.4190	1.2777	0.7203	-0.2899	0.7250	0.8110	1.1115	-0.5513	0.4420	0.0340	0.7485	-0.3140	-0.2918	0.5017	0.9073	0.8508	1.0599	1.1386	0.7656	0.7580	0.5059	-0.2242	-0.0416	0.2708	0.2644	2.2369	0.9000	0.6287	-0.2076	0.9176	0.7487	1.0038	-0.7194	0.2190	0.2756	0.8970	-0.2571	-0.2906	0.3103	0.7971	0.7869	1.0630	1.2715	0.8135	0.6128	0.2094	
0.1333	 1.68454658246518E-0001	2.8788	-0.5773	-0.4812	-0.2289	-0.2585	2.8788	2.2579	1.0541	-0.3189	0.4513	0.6883	1.1972	-0.1281	1.0130	-0.3917	0.3607	-0.6585	-0.6086	1.0370	1.3275	1.1235	1.1353	0.7211	0.5286	0.9026	0.8449	-0.0851	-0.0072	0.1298	-0.0014	2.4099	1.3260	0.7690	-0.1643	0.9026	0.6414	0.9838	-0.6013	0.4199	0.2018	0.7820	-0.4521	-0.5435	0.5578	1.0181	0.9898	1.1997	1.0399	0.6175	0.5511	0.2351	
0.2000	 4.98392856681868E-0001	3.4076	-0.8408	-0.7267	-0.6234	-0.8062	3.4076	3.6301	1.4659	-0.3275	0.2047	0.5363	1.2604	0.2944	1.7796	-0.9773	-0.0728	-1.0325	-0.9547	1.7277	1.7748	1.3689	1.1926	0.3490	0.3236	1.0843	1.3774	0.0259	0.0076	-0.0149	-0.2921	2.6349	1.8840	0.9280	-0.1597	0.8198	0.5948	1.0095	-0.4541	0.6585	0.1026	0.6292	-0.6975	-0.8533	0.8789	1.3035	1.2550	1.3923	0.7093	0.3593	0.5212	0.3362	
