Arquivo: c:\arq\medidas\BBA_1303_063127\BBA_AMP03A_V.dat
Data: 1303	 Hora:  0645
Comentário: 
NomeParametro	 ValorParametro
Nmedias	5
PausaCorretora	3000
PausaShunt	2000
PausaLeitura	500
NumCiclos	3
 NPassosCor	9
DeltaShunt	1.50
TetaIni	-0.20
TetaFim	0.20
I[mA]	 165.7
ACV09A	DeltaPos^2	AMP03A	AMP01B_0	AMP02A_0	AMP02B_0	AMP03A_0	AMP03B_0	AMP04A_0	AMP04B_0	AMP05A_0	AMP05B_0	AMP06A_0	AMP06B_0	AMP07A_0	AMP07B_0	AMP08A_0	AMP08B_0	AMP09A_0	AMP09B_0	AMP10A_0	AMP10B_0	AMP11A_0	AMU11A_0	AMU11B_0	AMP11B_0	AMP12A_0	AMP12B_0	AMP01A_0	AMP01B_1	AMP02A_1	AMP02B_1	AMP03A_1	AMP03B_1	AMP04A_1	AMP04B_1	AMP05A_1	AMP05B_1	AMP06A_1	AMP06B_1	AMP07A_1	AMP07B_1	AMP08A_1	AMP08B_1	AMP09A_1	AMP09B_1	AMP10A_1	AMP10B_1	AMP11A_1	AMU11A_1	AMU11B_1	AMP11B_1	AMP12A_1	AMP12B_1	AMP01A_1	
-0.2000	 3.32078760402179E-0003	-1.4718	0.0208	-0.3438	-0.8941	-1.4718	3.3814	1.8849	0.5516	1.3585	-0.6865	0.3517	-0.0872	1.6637	-0.2253	0.1681	-1.3890	-1.7558	0.9328	1.6182	1.9504	-0.6560	2.0166	-0.0399	3.6961	-0.2585	0.5931	0.8297	-0.0121	-0.3903	-0.9623	-1.5597	3.4098	1.9361	0.6149	1.4263	-0.7838	0.2903	-0.0878	1.7000	-0.1983	0.1609	-1.4497	-1.8490	1.0104	1.6813	1.9941	-0.6783	2.0336	-0.1067	3.7864	-0.2958	0.6249	0.9026	
-0.1500	 2.05432144039283E-0003	-1.0260	-0.0232	-0.2531	-0.5907	-1.0260	3.0751	1.5644	0.3843	1.2882	-0.3497	0.4901	-0.2763	1.2681	-0.0597	0.3840	-1.0807	-1.3649	0.7347	1.3900	1.6648	-0.6547	1.7955	0.3090	2.9542	0.0101	0.5791	0.6452	-0.0484	-0.2893	-0.6444	-1.0954	3.0977	1.6050	0.4337	1.3413	-0.4265	0.4424	-0.2768	1.2968	-0.0384	0.3783	-1.1289	-1.4385	0.7953	1.4396	1.6996	-0.6513	1.8089	0.2566	3.0265	-0.0196	0.6040	0.7020	
-0.1000	 1.04012081849614E-0003	-0.5715	-0.0697	-0.1624	-0.2824	-0.5715	2.7635	1.2383	0.2134	1.2151	-0.0069	0.6317	-0.4670	0.8664	0.1062	0.6020	-0.7673	-0.9658	0.5332	1.1574	1.3731	-0.6748	1.5691	0.6637	2.1906	0.2835	0.5665	0.4596	-0.0870	-0.1878	-0.3206	-0.6210	2.7791	1.2673	0.2487	1.2530	-0.0618	0.5974	-0.4676	0.8863	0.1217	0.5982	-0.8015	-1.0185	0.5759	1.1930	1.3980	-0.6364	1.5794	0.6263	2.2427	0.2620	0.5839	0.4992	
-0.0500	 3.51491336515196E-0004	-0.1103	-0.1183	-0.0718	0.0293	-0.1103	2.4471	0.9078	0.0394	1.1399	0.3404	0.7756	-0.6590	0.4603	0.2720	0.8216	-0.4492	-0.5592	0.3290	0.9212	1.0772	-0.6603	1.3395	1.0219	1.4088	0.5601	0.5549	0.2730	-0.1282	-0.0861	0.0070	-0.1394	2.4553	0.9246	0.0604	1.1621	0.3085	0.7554	-0.6594	0.4719	0.2810	0.8196	-0.4692	-0.5903	0.3534	0.9418	1.0916	-0.6568	1.3456	1.0001	1.4389	0.5477	0.5645	0.2957	
0.0000	 2.78476852972764E-0005	0.3532	-0.1692	0.0180	0.3419	0.3532	2.1275	0.5760	-0.1350	1.0637	0.6888	0.9207	-0.8507	0.0532	0.4364	1.0409	-0.1296	-0.1505	0.1238	0.6836	0.7779	-0.6340	1.1083	1.3804	0.6194	0.8387	0.5451	0.0881	-0.1715	0.0143	0.3359	0.3446	2.1293	0.5804	-0.1291	1.0705	0.6795	0.9148	-0.8510	0.0562	0.4399	1.0408	-0.1352	-0.1596	0.1303	0.6892	0.7823	-0.6631	1.1103	1.3743	0.6269	0.8349	0.5473	0.0934	
0.0500	 7.43746771206241E-0005	0.8271	-0.2234	0.1093	0.6608	0.8271	1.7991	0.2364	-0.3131	0.9857	1.0446	1.0691	-1.0466	-0.3636	0.6047	1.2650	0.1975	0.2679	-0.0860	0.4406	0.4709	-0.6903	0.8702	1.7473	-0.1911	1.1244	0.5362	-0.0996	-0.2181	0.1165	0.6710	0.8401	1.7937	0.2283	-0.3225	0.9759	1.0589	1.0778	-1.0470	-0.3694	0.6008	1.2660	0.2066	0.2814	-0.0979	0.4310	0.4645	-0.6590	0.8677	1.7568	-0.2063	1.1296	0.5310	-0.1112	
0.1000	 5.09672886279857E-0004	1.3053	-0.2807	0.1996	0.9838	1.3053	1.4659	-0.1074	-0.4932	0.9076	1.4042	1.2190	-1.2445	-0.7856	0.7744	1.4910	0.5285	0.6913	-0.2970	0.1950	0.1588	-0.6642	0.6262	2.1178	-1.0119	1.4138	0.5284	-0.2881	-0.2681	0.2182	1.0106	1.3384	1.4530	-0.1285	-0.5178	0.8811	1.4420	1.2426	-1.2445	-0.8001	0.7637	1.4939	0.5525	0.7277	-0.3276	0.1697	0.1415	-0.6630	0.6190	2.1432	-1.0505	1.4280	0.5156	-0.3171	
0.1500	 1.31572541437430E-0003	1.7818	-0.3407	0.2888	1.3059	1.7818	1.1323	-0.4510	-0.6738	0.8293	1.7626	1.3685	-1.4422	-1.2069	0.9437	1.7170	0.8585	1.1141	-0.5057	-0.0499	-0.1541	-0.6761	0.3801	2.4867	-1.8279	1.7044	0.5221	-0.4745	-0.3205	0.3179	1.3480	1.8369	1.1121	-0.4842	-0.7133	0.7863	1.8234	1.4067	-1.4420	-1.2296	0.9264	1.7213	0.8971	1.1731	-0.5544	-0.0902	-0.1821	-0.6365	0.3688	2.5276	-1.8886	1.7272	0.5020	-0.5209	
0.2000	 2.46154793886880E-0003	2.2547	-0.4028	0.3755	1.6241	2.2547	0.7989	-0.7923	-0.8523	0.7519	2.1174	1.5166	-1.6392	-1.6246	1.1133	1.9413	1.1858	1.5326	-0.7105	-0.2920	-0.4662	-0.6574	0.1335	2.8511	-2.6313	1.9929	0.5178	-0.6577	-0.3752	0.4154	1.6823	2.3291	0.7716	-0.8377	-0.9069	0.6931	2.1998	1.5687	-1.6385	-1.6559	1.0886	1.9469	1.2386	1.6133	-0.7770	-0.3471	-0.5051	-0.6488	0.1176	2.9071	-2.7126	2.0249	0.4902	-0.7210	
