Arquivo: c:\arq\medidas\BBA_1303_063127\BBA_AMP05B_V.dat
Data: 1303	 Hora:  0704
Comentário: 
NomeParametro	 ValorParametro
Nmedias	5
PausaCorretora	3000
PausaShunt	2000
PausaLeitura	500
NumCiclos	3
 NPassosCor	9
DeltaShunt	1.50
TetaIni	-0.20
TetaFim	0.20
I[mA]	 162.6
ACV11B	DeltaPos^2	AMP05B	AMP01B_0	AMP02A_0	AMP02B_0	AMP03A_0	AMP03B_0	AMP04A_0	AMP04B_0	AMP05A_0	AMP05B_0	AMP06A_0	AMP06B_0	AMP07A_0	AMP07B_0	AMP08A_0	AMP08B_0	AMP09A_0	AMP09B_0	AMP10A_0	AMP10B_0	AMP11A_0	AMU11A_0	AMU11B_0	AMP11B_0	AMP12A_0	AMP12B_0	AMP01A_0	AMP01B_1	AMP02A_1	AMP02B_1	AMP03A_1	AMP03B_1	AMP04A_1	AMP04B_1	AMP05A_1	AMP05B_1	AMP06A_1	AMP06B_1	AMP07A_1	AMP07B_1	AMP08A_1	AMP08B_1	AMP09A_1	AMP09B_1	AMP10A_1	AMP10B_1	AMP11A_1	AMU11A_1	AMU11B_1	AMP11B_1	AMP12A_1	AMP12B_1	AMP01A_1	
-0.2000	 3.31851572659510E-0003	-1.2423	1.3745	0.7051	-0.3302	-1.1804	2.4314	1.4165	1.2217	2.6920	-1.2423	-0.4245	-1.2108	0.2889	1.4512	1.2532	-1.1765	-1.9547	1.3496	1.8299	1.8375	-0.6400	1.7573	-0.0358	1.8904	-0.5393	-0.4159	-0.5828	1.4111	0.7046	-0.3898	-1.2788	2.4851	1.4817	1.2730	2.7334	-1.3303	-0.4964	-1.2589	0.2531	1.5395	1.2950	-1.2065	-2.0274	1.3669	1.8665	1.9067	-0.6122	1.8218	-0.1118	2.0318	-0.6065	-0.4323	-0.5678	
-0.1500	 2.03800246307591E-0003	-0.7629	0.9906	0.5359	-0.1577	-0.7915	2.3525	1.2046	0.8896	2.3013	-0.7629	-0.0933	-1.1329	0.2146	1.2144	1.2119	-0.9111	-1.5049	1.0482	1.5455	1.5691	-0.6411	1.5900	0.3226	1.5630	-0.1915	-0.1771	-0.4184	1.0196	0.5357	-0.2043	-0.8684	2.3946	1.2554	0.9298	2.3342	-0.8321	-0.1496	-1.1705	0.1870	1.2837	1.2445	-0.9345	-1.5624	1.0619	1.5741	1.6236	-0.6446	1.6405	0.2632	1.6736	-0.2441	-0.1900	-0.4072	
-0.1000	 1.01030328153571E-0003	-0.2688	0.5948	0.3619	0.0191	-0.3903	2.2720	0.9860	0.5468	1.8969	-0.2688	0.2467	-1.0518	0.1397	0.9691	1.1684	-0.6380	-1.0408	0.7388	1.2530	1.2921	-0.6323	1.4161	0.6912	1.2256	0.1662	0.0685	-0.2497	0.6158	0.3620	-0.0136	-0.4446	2.3013	1.0218	0.5754	1.9202	-0.3176	0.2071	-1.0779	0.1205	1.0178	1.1914	-0.6546	-1.0815	0.7488	1.2732	1.3300	-0.6464	1.4515	0.6495	1.3033	0.1293	0.0590	-0.2421	
-0.0500	 3.14531878918841E-0004	0.2318	0.1937	0.1856	0.1983	0.0158	2.1904	0.7651	0.1997	1.4849	0.2318	0.5909	-0.9682	0.0653	0.7190	1.1232	-0.3623	-0.5697	0.4274	0.9567	1.0101	-0.6396	1.2390	1.0628	0.8840	0.5287	0.3172	-0.0787	0.2056	0.1860	0.1802	-0.0145	2.2067	0.7847	0.2155	1.4982	0.2045	0.5687	-0.9828	0.0546	0.7462	1.1360	-0.3718	-0.5925	0.4329	0.9679	1.0311	-0.6110	1.2589	1.0398	0.9271	0.5078	0.3118	-0.0746	
0.0000	 1.17395878186009E-0005	0.7370	-0.2119	0.0066	0.3788	0.4265	2.1079	0.5415	-0.1519	1.0666	0.7370	0.9392	-0.8831	-0.0087	0.4653	1.0770	-0.0838	-0.0927	0.1135	0.6567	0.7238	-0.6375	1.0598	1.4374	0.5384	0.8952	0.5691	0.0938	-0.2091	0.0069	0.3752	0.4208	2.1109	0.5455	-0.1489	1.0695	0.7319	0.9349	-0.8859	-0.0104	0.4707	1.0795	-0.0857	-0.0973	0.1146	0.6590	0.7277	-0.6557	1.0635	1.4331	0.5465	0.8912	0.5681	0.0943	
0.0500	 1.29670768660654E-0004	1.2593	-0.6334	-0.1787	0.5652	0.8514	2.0223	0.3100	-0.5158	0.6332	1.2593	1.2996	-0.7944	-0.0846	0.2019	1.0286	0.2046	0.4010	-0.2124	0.3464	0.4273	-0.6637	0.8737	1.8247	0.1804	1.2733	0.8303	0.2731	-0.6403	-0.1787	0.5768	0.8707	2.0119	0.2972	-0.5260	0.6250	1.2768	1.3138	-0.7849	-0.0774	0.1845	1.0201	0.2105	0.4153	-0.2158	0.3391	0.4135	-0.6496	0.8606	1.8396	0.1522	1.2868	0.8335	0.2699	
0.1000	 6.86113501632936E-0004	1.7843	-1.0590	-0.3668	0.7533	1.2777	1.9363	0.0772	-0.8822	0.1943	1.7843	1.6618	-0.7052	-0.1615	-0.0633	0.9794	0.4949	0.8981	-0.5414	0.0332	0.1295	-0.6400	0.6866	2.2123	-0.1792	1.6531	1.0938	0.4551	-1.0760	-0.3670	0.7797	1.3218	1.9126	0.0477	-0.9055	0.1747	1.8240	1.6944	-0.6830	-0.1448	-0.1042	0.9601	0.5080	0.9313	-0.5493	0.0168	0.0977	-0.6243	0.6565	2.2463	-0.2431	1.6841	1.1017	0.4489	
0.1500	 1.66261536698652E-0003	2.3062	-1.4841	-0.5553	0.9401	1.7005	1.8514	-0.1551	-1.2485	-0.2460	2.3062	2.0234	-0.6160	-0.2385	-0.3288	0.9313	0.7852	1.3947	-0.8710	-0.2800	-0.1673	-0.6522	0.5007	2.5969	-0.5369	2.0311	1.3573	0.6389	-1.5107	-0.5555	0.9815	1.7692	1.8137	-0.2009	-1.2850	-0.2761	2.3678	2.0739	-0.5816	-0.2128	-0.3923	0.9010	0.8060	1.4467	-0.8833	-0.3058	-0.2170	-0.6211	0.4543	2.6495	-0.6370	2.0787	1.3696	0.6290	
0.2000	 2.97020038531384E-0003	2.8200	-1.9057	-0.7434	1.1246	2.1182	1.7687	-0.3844	-1.6110	-0.6823	2.8200	2.3807	-0.5279	-0.3160	-0.5915	0.8838	1.0735	1.8859	-1.1991	-0.5914	-0.4602	-0.6333	0.3188	2.9752	-0.8891	2.4035	1.6194	0.8230	-1.9417	-0.7442	1.1798	2.2100	1.7184	-0.4459	-1.6598	-0.7227	2.9019	2.4479	-0.4811	-0.2807	-0.6774	0.8432	1.1010	1.9548	-1.2151	-0.6259	-0.5264	-0.6550	0.2566	3.0450	-1.0223	2.4666	1.6357	0.8102	
