Arquivo: c:\arq\medidas\BBA_2003_073142\BBA_AMP05A_V.dat
Data: 2003	 Hora:  0758
Comentário: 
NomeParametro	 ValorParametro
Nmedias	5
PausaCorretora	3000
PausaShunt	2000
PausaLeitura	500
NumCiclos	3
 NPassosCor	7
DeltaShunt	3.00
TetaIni	-0.20
TetaFim	0.20
I[mA]	  69.6
ACV11B	DeltaPos^2	AMP05A	AMP01B_0	AMP02A_0	AMP02B_0	AMP03A_0	AMP03B_0	AMP03C_0	AMP04A_0	AMP04B_0	AMP05A_0	AMP05B_0	AMP06A_0	AMP06B_0	AMP07A_0	AMP07B_0	AMP08A_0	AMP08B_0	AMP09A_0	AMP09B_0	AMP10A_0	AMP10B_0	AMU11A_0	AMU11B_0	AMP12A_0	AMP12B_0	AMP01A_0	AMP01B_1	AMP02A_1	AMP02B_1	AMP03A_1	AMP03B_1	AMP03C_1	AMP04A_1	AMP04B_1	AMP05A_1	AMP05B_1	AMP06A_1	AMP06B_1	AMP07A_1	AMP07B_1	AMP08A_1	AMP08B_1	AMP09A_1	AMP09B_1	AMP10A_1	AMP10B_1	AMU11A_1	AMU11B_1	AMP12A_1	AMP12B_1	AMP01A_1	
-0.2000	 1.22608641939764E-0002	2.4855	1.2268	0.6402	-0.2598	-1.0332	2.3807	1.7664	1.3110	1.0474	2.4855	-0.9805	-0.2372	-1.1554	0.2657	1.3083	1.1924	-1.1236	-1.8367	1.2574	1.7209	1.6870	1.6150	0.0524	-0.4200	-0.3206	-0.5062	1.3844	0.7188	-0.3071	-1.1604	2.3879	1.8411	1.3726	1.1718	2.6481	-1.0501	-0.3323	-1.2897	0.1010	1.5104	1.3224	-1.1000	-1.8786	1.1730	1.7131	1.8052	1.7666	-0.0466	-0.5451	-0.4216	-0.5893	
-0.1333	 5.42678011574687E-0003	1.9522	0.6943	0.3981	-0.0449	-0.5274	2.2977	1.3746	1.0456	0.6054	1.9522	-0.3502	0.2004	-1.0413	0.1850	0.9813	1.1266	-0.7808	-1.2480	0.8727	1.3519	1.3292	1.3848	0.5254	0.0461	0.0118	-0.2662	0.7994	0.4504	-0.0763	-0.6120	2.3026	1.4236	1.0865	0.6883	2.0614	-0.3974	0.1370	-1.1304	0.0767	1.1159	1.2128	-0.7657	-1.2767	0.8172	1.3474	1.4078	1.4858	0.4596	-0.0376	-0.0556	-0.3214	
-0.0667	 1.16219314122606E-0003	1.4015	0.1474	0.1501	0.1757	-0.0080	2.2126	0.9711	0.7728	0.1506	1.4015	0.2976	0.6492	-0.9227	0.1048	0.6430	1.0574	-0.4300	-0.6412	0.4797	0.9739	0.9595	1.1460	1.0097	0.5240	0.3530	-0.0200	0.1958	0.1744	0.1614	-0.0467	2.2146	0.9931	0.7914	0.1890	1.4524	0.2757	0.6199	-0.9639	0.0548	0.7056	1.0973	-0.4226	-0.6544	0.4540	0.9720	0.9963	1.1928	0.9791	0.4855	0.3216	-0.0457	
0.0000	 4.53309200219808E-0005	0.8431	-0.4046	-0.1012	0.3975	0.5164	2.1264	0.5634	0.4973	-0.3092	0.8431	0.9496	1.1022	-0.8024	0.0246	0.3008	0.9871	-0.0758	-0.0284	0.0838	0.5918	0.5853	0.9050	1.4969	1.0066	0.6975	0.2272	-0.4144	-0.1058	0.4007	0.5250	2.1253	0.5575	0.4931	-0.3167	0.8330	0.9537	1.1082	-0.7944	0.0348	0.2891	0.9797	-0.0768	-0.0249	0.0884	0.5919	0.5784	0.8958	1.5023	1.0139	0.7034	0.2321	
0.0667	 2.35622453436331E-0003	0.2682	-0.9733	-0.3594	0.6249	1.0535	2.0380	0.1457	0.2145	-0.7802	0.2682	1.6178	1.5663	-0.6784	-0.0572	-0.0511	0.9148	0.2879	0.6012	-0.3244	0.1989	0.2018	0.6572	1.9952	1.4997	1.0512	0.4826	-1.0431	-0.3934	0.6464	1.1103	2.0340	0.1105	0.1868	-0.8355	0.1953	1.6491	1.6084	-0.6202	0.0135	-0.1391	0.8591	0.2792	0.6223	-0.2888	0.2011	0.1501	0.5908	2.0372	1.5541	1.0950	0.5187	
0.1333	 8.11028101283286E-0003	-0.3195	-1.5511	-0.6234	0.8558	1.5964	1.9490	-0.2783	-0.0725	-1.2592	-0.3195	2.2938	2.0372	-0.5528	-0.1421	-0.4084	0.8416	0.6582	1.2427	-0.7415	-0.2017	-0.1869	0.4066	2.4977	1.9990	1.4110	0.7445	-1.6802	-0.6868	0.8960	1.7018	1.9410	-0.3439	-0.1248	-1.3614	-0.4544	2.3510	2.1144	-0.4447	-0.0104	-0.5719	0.7376	0.6416	1.2804	-0.6756	-0.1971	-0.2832	0.2837	2.5760	2.0994	1.4926	0.8115	
0.2000	 1.66554163763841E-0002	-0.9019	-2.1232	-0.8862	1.0842	2.1320	1.8614	-0.6975	-0.3568	-1.7338	-0.9019	2.9586	2.5018	-0.4301	-0.2292	-0.7608	0.7715	1.0274	1.8777	-1.1591	-0.6009	-0.5699	0.1629	2.9909	2.4899	1.7684	1.0065	-2.3073	-0.9769	1.1415	2.2823	1.8499	-0.7919	-0.4321	-1.8799	-1.0953	3.0389	2.6112	-0.2742	-0.0393	-0.9957	0.6223	1.0026	1.9308	-1.0637	-0.5939	-0.7082	-0.0135	3.1026	2.6328	1.8851	1.1032	
