Arquivo: c:\arq\medidas\BBA_2003_071015\BBA_AMP03A_V.dat
Data: 2003	 Hora:  0721
Comentário: 
NomeParametro	 ValorParametro
Nmedias	5
PausaCorretora	3000
PausaShunt	2000
PausaLeitura	500
NumCiclos	3
 NPassosCor	7
DeltaShunt	3.00
TetaIni	-0.20
TetaFim	0.20
I[mA]	 161.6
ACV09A	DeltaPos^2	AMP03A	AMP01B_0	AMP02A_0	AMP02B_0	AMP03A_0	AMP03B_0	AMP03C_0	AMP04A_0	AMP04B_0	AMP05A_0	AMP05B_0	AMP06A_0	AMP06B_0	AMP07A_0	AMP07B_0	AMP08A_0	AMP08B_0	AMP09A_0	AMP09B_0	AMP10A_0	AMP10B_0	AMU11A_0	AMU11B_0	AMP12A_0	AMP12B_0	AMP01A_0	AMP01B_1	AMP02A_1	AMP02B_1	AMP03A_1	AMP03B_1	AMP03C_1	AMP04A_1	AMP04B_1	AMP05A_1	AMP05B_1	AMP06A_1	AMP06B_1	AMP07A_1	AMP07B_1	AMP08A_1	AMP08B_1	AMP09A_1	AMP09B_1	AMP10A_1	AMP10B_1	AMU11A_1	AMU11B_1	AMP12A_1	AMP12B_1	AMP01A_1	
-0.2000	 1.92362710491058E-0001	-0.9539	-0.0145	-0.2490	-0.5603	-0.9539	3.0915	2.9818	1.4693	0.2252	1.1010	-0.1960	0.6424	-0.1517	1.3658	-0.2112	0.2822	-1.1499	-1.4378	0.8633	1.4429	1.6090	1.7504	0.2530	0.0444	0.5734	0.6418	-0.0352	-0.0500	-0.0794	-0.3223	2.6962	2.0035	0.9710	-0.1717	0.8068	0.4815	0.9929	-0.2937	0.9264	-0.1008	0.4635	-0.8069	-0.9152	0.8742	1.2835	1.1274	1.2024	0.9036	0.5158	0.5759	0.3272	
-0.1333	 8.65933253710812E-0002	-0.4862	-0.0414	-0.0972	-0.2012	-0.4862	2.8350	2.3665	1.0899	-0.1272	0.7810	0.4151	0.9806	-0.2589	0.9676	-0.1222	0.4435	-0.8490	-1.0177	0.8346	1.2952	1.2544	1.3602	0.7271	0.3739	0.5691	0.4433	-0.1803	-0.0846	0.0570	-0.0749	2.5508	1.6004	0.8215	-0.2712	0.7193	0.7172	1.0963	-0.4306	0.6096	0.0001	0.6265	-0.5404	-0.5777	0.6359	1.0584	0.9281	1.0805	1.1113	0.6867	0.6365	0.3182	
-0.0667	 2.49235744611071E-0002	-0.0507	-0.1949	-0.1066	0.0417	-0.0507	2.5253	1.5891	0.8478	-0.1983	0.7994	0.6536	1.0258	-0.4949	0.5677	0.0599	0.6843	-0.5045	-0.5891	0.5080	0.9881	0.9748	1.1802	1.0563	0.6377	0.6179	0.3334	-0.2480	-0.0754	0.2030	0.1596	2.3588	1.1742	0.6892	-0.2609	0.8032	0.7849	1.0713	-0.6046	0.3574	0.1499	0.7919	-0.3420	-0.3688	0.4074	0.8638	0.8014	1.0337	1.2521	0.8036	0.6412	0.2541	
0.0000	 8.45279827396589E-0004	0.4165	-0.3437	-0.0832	0.3459	0.4165	2.1661	0.7053	0.5496	-0.2896	0.8315	0.9008	1.0867	-0.7534	0.1033	0.2784	0.9463	-0.1350	-0.0964	0.1630	0.6704	0.6571	0.9441	1.4386	0.9383	0.6693	0.2140	-0.3461	-0.0772	0.3688	0.4448	2.1348	0.6269	0.5278	-0.2700	0.8781	0.8744	1.0599	-0.7879	0.0727	0.3083	0.9757	-0.1089	-0.0798	0.1236	0.6380	0.6452	0.9562	1.4519	0.9486	0.6616	0.2036	
0.0667	 1.93446459153209E-0002	0.8783	-0.5284	-0.0839	0.6525	0.8783	1.8368	-0.1431	0.2759	-0.3774	0.8400	1.1862	1.1633	-1.0141	-0.3196	0.4650	1.1958	0.2253	0.3785	-0.1805	0.3518	0.3577	0.7413	1.7927	1.2224	0.7346	0.1196	-0.4170	-0.0680	0.5226	0.6957	1.9279	0.1424	0.3856	-0.2566	0.9740	0.9376	1.0302	-0.9747	-0.2062	0.4751	1.1556	0.0998	0.1544	-0.1286	0.4345	0.5162	0.9054	1.6082	1.0676	0.6655	0.1398	
0.1333	 1.18267102267305E-0001	1.5743	-0.6359	0.0291	1.0948	1.5743	1.3396	-1.3369	-0.1851	-0.5817	0.8009	1.6100	1.3187	-1.3101	-0.9259	0.7274	1.5198	0.7022	0.9991	-0.5309	-0.0322	-0.1007	0.3852	2.3354	1.6622	0.7395	-0.1331	-0.5898	-0.0967	0.7207	1.0736	1.6687	-0.5165	0.1742	-0.3151	1.0030	1.1073	1.0604	-1.1820	-0.5682	0.6403	1.3756	0.4064	0.5559	-0.4781	0.1439	0.2952	0.7713	1.8814	1.2743	0.7178	0.0968	
0.2000	 2.23575849001228E-0001	2.1330	-0.7727	0.1006	1.4770	2.1330	0.9238	-2.3806	-0.5654	-0.6933	0.8537	1.9154	1.3851	-1.6380	-1.4958	1.0087	1.8557	1.1465	1.5433	-0.9130	-0.4015	-0.4694	0.1309	2.7739	1.9953	0.7641	-0.3047	-0.7488	-0.1172	0.9317	1.5023	1.3815	-1.1691	-0.0648	-0.3881	1.0457	1.2690	1.0837	-1.3913	-0.9377	0.8026	1.5975	0.7327	0.9564	-0.8209	-0.1681	0.0356	0.6244	2.1712	1.5101	0.7703	0.0450	
