Arquivo: c:\arq\medidas\BBA_2003_071015\BBA_AMP01B_V.dat
Data: 2003	 Hora:  0711
Comentário: 
NomeParametro	 ValorParametro
Nmedias	5
PausaCorretora	3000
PausaShunt	2000
PausaLeitura	500
NumCiclos	3
 NPassosCor	7
DeltaShunt	3.00
TetaIni	-0.20
TetaFim	0.20
I[mA]	 162.8
ACV11A	DeltaPos^2	AMP01B	AMP01B_0	AMP02A_0	AMP02B_0	AMP03A_0	AMP03B_0	AMP03C_0	AMP04A_0	AMP04B_0	AMP05A_0	AMP05B_0	AMP06A_0	AMP06B_0	AMP07A_0	AMP07B_0	AMP08A_0	AMP08B_0	AMP09A_0	AMP09B_0	AMP10A_0	AMP10B_0	AMU11A_0	AMU11B_0	AMP12A_0	AMP12B_0	AMP01A_0	AMP01B_1	AMP02A_1	AMP02B_1	AMP03A_1	AMP03B_1	AMP03C_1	AMP04A_1	AMP04B_1	AMP05A_1	AMP05B_1	AMP06A_1	AMP06B_1	AMP07A_1	AMP07B_1	AMP08A_1	AMP08B_1	AMP09A_1	AMP09B_1	AMP10A_1	AMP10B_1	AMU11A_1	AMU11B_1	AMP12A_1	AMP12B_1	AMP01A_1	
-0.2000	 1.10278020327898E+0000	-2.0615	-2.0615	-1.0316	0.5453	1.3558	2.3271	0.6889	0.1714	-1.3867	-0.7199	2.4322	2.2261	-0.2872	0.2239	-0.8270	0.6229	0.5379	1.2461	-0.4007	-0.0847	-0.3675	-0.2355	1.8708	1.7060	1.6687	1.4373	-0.3409	0.0012	0.7597	1.0512	1.6171	-0.5597	0.1180	-0.2994	0.9805	1.2880	1.0942	-1.3804	-0.9569	1.0166	1.6157	0.4277	0.4293	-0.6782	0.1444	0.6162	1.1054	1.4177	0.8552	0.5322	0.0571	
-0.1333	 4.60319224901724E-0001	-1.3750	-1.3750	-0.6732	0.5838	1.2327	2.0055	0.1103	0.1621	-0.8647	0.1170	1.7898	1.7253	-0.5833	-0.1060	-0.1804	0.9695	0.4800	0.9225	-0.4505	0.0020	-0.0809	0.1818	1.8832	1.5085	1.2025	0.8114	-0.2246	0.0781	0.6684	0.8584	1.6798	-0.3560	0.2517	-0.1282	1.2706	0.8463	0.8833	-1.2964	-0.6480	0.8921	1.4743	0.2778	0.2498	-0.4438	0.2703	0.5903	1.0658	1.5466	0.9448	0.4993	-0.0479	
-0.0667	 9.88642397750481E-0002	-0.8535	-0.8535	-0.3122	0.5625	0.9247	1.9919	0.1568	0.2939	-0.5475	0.5490	1.3397	1.3583	-0.7734	-0.1363	0.1660	1.0374	0.2260	0.4682	-0.2412	0.2794	0.2720	0.6059	1.6992	1.2480	0.9154	0.4589	-0.3004	0.0039	0.5374	0.6977	1.8706	0.0319	0.3677	-0.1891	1.0945	0.8638	0.9464	-1.0679	-0.3189	0.6212	1.2495	0.1108	0.1275	-0.2032	0.4261	0.5970	1.0016	1.5267	0.9695	0.5832	0.0701	
0.0000	 8.70806906455166E-0004	-0.4207	-0.4207	-0.1020	0.4295	0.5744	2.0562	0.4260	0.4646	-0.2844	0.8933	0.9053	1.0645	-0.8282	0.0055	0.3266	1.0167	-0.0304	0.0259	0.0351	0.5525	0.5617	0.8946	1.5457	1.0316	0.6941	0.2062	-0.3762	-0.0797	0.4163	0.5355	2.0673	0.4636	0.4806	-0.2640	0.9156	0.8823	1.0463	-0.8389	-0.0014	0.3551	1.0255	-0.0519	-0.0171	0.0499	0.5785	0.6072	0.9414	1.4963	0.9851	0.6677	0.1912	
0.0667	 1.40226710927632E-0001	0.1584	0.1584	0.1864	0.2948	0.1624	2.1042	0.6266	0.6641	0.0718	1.3873	0.3360	0.6904	-0.8854	0.0927	0.6046	1.0161	-0.3089	-0.4680	0.3036	0.8456	0.8758	1.2724	1.3756	0.7987	0.4101	-0.1709	-0.5031	-0.1934	0.2862	0.3895	2.2877	0.9136	0.5916	-0.3821	0.6848	0.9294	1.1791	-0.5678	0.3601	0.0252	0.7616	-0.2190	-0.1317	0.3169	0.7318	0.5848	0.8445	1.4881	1.0373	0.7917	0.3490	
0.1333	 5.89093846159309E-0001	0.6561	0.6561	0.5725	0.2241	-0.2264	2.1306	0.8458	0.8438	0.4156	1.9414	-0.2087	0.2585	-1.0792	0.1609	0.8845	1.0406	-0.5919	-0.9481	0.5839	1.1479	1.2188	1.5957	1.2226	0.5421	0.1174	-0.4847	-0.6244	-0.3010	0.1605	0.2222	2.5087	1.4027	0.7142	-0.4763	0.4613	0.9811	1.3080	-0.3113	0.7247	-0.2928	0.5043	-0.3969	-0.2963	0.6094	0.8967	0.5816	0.7644	1.4703	1.0716	0.9013	0.5078	
0.2000	 1.29517430730493E+0000	1.5507	1.5507	0.9614	0.1454	-0.6229	2.0245	0.6697	0.9725	0.9110	2.5809	-0.8175	-0.1894	-1.3048	0.0029	1.4408	1.2849	-0.8746	-1.5838	0.7321	1.4858	1.7922	2.3157	0.8820	0.0792	-0.3972	-1.1065	-0.3173	-0.2168	-0.0643	-0.2446	2.7070	1.9323	0.9895	-0.2186	0.6566	0.5256	1.0910	-0.0901	1.2228	-0.4729	0.2694	-0.7182	-0.6650	1.0156	1.2006	0.7124	0.8230	1.4559	1.0219	0.7860	0.3535	
