Arquivo: c:\arq\medidas\BBA_2003_071015\BBA_AMP02A_V.dat
Data: 2003	 Hora:  0715
Comentário: 
NomeParametro	 ValorParametro
Nmedias	5
PausaCorretora	3000
PausaShunt	2000
PausaLeitura	500
NumCiclos	3
 NPassosCor	7
DeltaShunt	3.00
TetaIni	-0.20
TetaFim	0.20
I[mA]	 162.4
ACV07B	DeltaPos^2	AMP02A	AMP01B_0	AMP02A_0	AMP02B_0	AMP03A_0	AMP03B_0	AMP03C_0	AMP04A_0	AMP04B_0	AMP05A_0	AMP05B_0	AMP06A_0	AMP06B_0	AMP07A_0	AMP07B_0	AMP08A_0	AMP08B_0	AMP09A_0	AMP09B_0	AMP10A_0	AMP10B_0	AMU11A_0	AMU11B_0	AMP12A_0	AMP12B_0	AMP01A_0	AMP01B_1	AMP02A_1	AMP02B_1	AMP03A_1	AMP03B_1	AMP03C_1	AMP04A_1	AMP04B_1	AMP05A_1	AMP05B_1	AMP06A_1	AMP06B_1	AMP07A_1	AMP07B_1	AMP08A_1	AMP08B_1	AMP09A_1	AMP09B_1	AMP10A_1	AMP10B_1	AMU11A_1	AMU11B_1	AMP12A_1	AMP12B_1	AMP01A_1	
-0.2000	 1.23870694230972E+0000	-1.3339	-2.3297	-1.3339	0.1677	0.8999	2.8257	1.7282	0.5594	-1.4025	-0.9709	2.2618	2.2924	0.1810	0.9505	-1.4192	-0.2296	-0.8978	-0.6271	1.7116	1.3229	0.0755	-0.3186	1.6650	1.6406	1.9244	1.8503	-0.5020	-0.1859	0.3246	0.4563	2.2164	0.7913	0.5411	-0.3465	0.7700	1.0685	1.2375	-0.8601	-0.1777	0.4338	1.0006	-0.3835	-0.5305	0.4005	0.9597	1.0965	1.2653	0.8712	0.4944	0.6918	0.5415	
-0.1333	 1.17452707009397E-0001	-0.3175	-0.7047	-0.3175	0.2055	0.3224	2.4474	1.2816	0.6564	-0.4792	0.5051	1.1243	1.3739	-0.5243	0.2762	0.0168	0.6874	-0.5214	-0.5899	0.6964	1.0704	0.9631	1.0132	0.9886	0.6497	0.8575	0.7287	-0.0116	0.0642	0.2185	0.0969	2.2678	0.9973	0.7048	-0.0717	1.1066	0.5553	0.8610	-0.7897	0.1984	0.4015	0.9274	-0.3657	-0.4805	0.3618	0.9119	0.9671	1.2356	1.0996	0.6322	0.4943	0.1126	
-0.0667	 3.54786108210124E-0002	-0.2275	-0.4829	-0.2275	0.2933	0.3944	2.2883	0.9246	0.5755	-0.3973	0.6031	1.0972	1.2397	-0.6809	0.1340	0.1861	0.8650	-0.2924	-0.3018	0.3694	0.8380	0.8305	1.0518	1.1771	0.7685	0.7460	0.4407	-0.1597	0.0017	0.2923	0.2640	2.1945	0.7994	0.6221	-0.1536	1.0085	0.6965	0.9480	-0.7903	0.1378	0.3586	0.9586	-0.2325	-0.2746	0.2339	0.7678	0.7999	1.0960	1.2863	0.7949	0.5670	0.1385	
0.0000	 1.05553313291311E-0003	-0.0961	-0.3639	-0.0961	0.3457	0.4194	2.1745	0.7139	0.5473	-0.2893	0.8334	0.8884	1.0869	-0.7408	0.1367	0.2547	0.9332	-0.1440	-0.1103	0.1743	0.6709	0.6553	0.9477	1.4311	0.9413	0.6784	0.2352	-0.3462	-0.0785	0.3657	0.4420	2.1412	0.6352	0.5311	-0.2686	0.8791	0.8705	1.0608	-0.7822	0.0805	0.3061	0.9711	-0.1174	-0.0905	0.1318	0.6455	0.6524	0.9607	1.4416	0.9421	0.6623	0.2081	
0.0667	 3.61310144385082E-0002	0.0545	-0.1697	0.0545	0.3927	0.4206	2.0522	0.4741	0.5295	-0.1324	1.0928	0.6434	0.9035	-0.8024	0.1487	0.3422	1.0075	0.0149	0.0940	-0.0407	0.4866	0.4883	0.8930	1.6829	1.1073	0.5713	-0.0343	-0.5391	-0.1745	0.4385	0.6293	2.0913	0.4598	0.4370	-0.3984	0.7197	1.0687	1.1912	-0.7614	0.0228	0.2436	0.9784	0.0025	0.0974	0.0223	0.5180	0.4930	0.8318	1.5918	1.1021	0.7698	0.2820	
0.1333	 1.96738765793752E-0001	0.2988	0.0696	0.2988	0.4520	0.4119	1.9170	0.2194	0.5036	0.0427	1.5033	0.2955	0.6352	-0.9511	0.0839	0.5480	1.1303	0.1867	0.2923	-0.2652	0.3061	0.3297	0.8445	1.9221	1.2465	0.4537	-0.3310	-0.7721	-0.2708	0.5087	0.8137	2.0474	0.3409	0.3448	-0.5325	0.5621	1.2603	1.3214	-0.7334	-0.0068	0.1523	0.9691	0.1197	0.2997	-0.0535	0.3903	0.3171	0.6411	1.7902	1.2796	0.8849	0.3796	
0.2000	 7.83909633060620E-0001	0.7787	0.9036	0.7787	0.5784	0.2965	1.5525	-0.4190	0.4421	0.5517	2.2470	-0.2177	0.1497	-1.3928	-0.3818	1.3138	1.7703	0.5817	0.5426	-1.0133	-0.0316	0.6034	1.4045	1.8401	0.9486	-0.1066	-1.0465	-0.6976	-0.1894	0.5157	0.8115	2.0109	0.2338	0.3526	-0.4834	0.6405	1.1241	1.2033	-0.6501	0.2028	-0.0066	0.9050	0.2406	0.5278	-0.1687	0.2318	0.0180	0.4332	2.1335	1.5836	0.9037	0.1941	
